XDAC V1.4 Datafile V1
"Fe_lepidocrocite.100" created on 11/3/2011 at 2:36:23 PM on X-23A2
Diffraction element= Si (311).  Ring energy= 2.80 GeV
E0= 7112.00
NUM_REGIONS= 4
SRB= -200 -20 30 60 15k
SRSS= 10 0.25 0.05k 0.05k
SPP= 0.5 0.5 0.5 0.125k
Settling time= 0.00


Offsets= 0.00 37.25 86.25 0.00
Gains= 8.00 8.00 9.00 1.00
gamma-FeOOH on tape


--------------------------------------------------------------------------------
        Energy            I0            It            Ir       IntTime
    6912.00137     4584.0000      673.3750     1351.8750        0.5000
    6921.99811     4601.0000      683.3750     1375.8750        0.5000
    6931.99952     4616.0000      691.3750     1397.8750        0.5000
    6942.00100     4627.0000      700.3750     1419.8750        0.5000
    6951.99793     4635.0000      709.3750     1440.8750        0.5000
    6961.99916     4633.0000      715.3750     1457.8750        0.5000
    6972.00005     4611.0000      720.3750     1470.8750        0.5000
    6982.00050     4621.0000      730.3750     1494.8750        0.5000
    6992.00035     4623.0000      739.3750     1517.8750        0.5000
    7001.99948     4628.0000      748.3750     1538.8750        0.5000
    7011.99777     4615.0000      753.3750     1553.8750        0.5000
    7021.99962     4592.0000      757.3750     1563.8750        0.5000
    7032.00039     4607.0000      767.3750     1585.8750        0.5000
    7041.99992     4594.0000      772.3750     1597.8750        0.5000
    7051.99811     4595.0000      780.3750     1617.8750        0.5000
    7061.99940     4614.0000      790.3750     1646.8750        0.5000
    7071.99909     4639.0000      803.3750     1679.8750        0.5000
    7082.00166     4637.0000      811.3750     1699.8750        0.5000
    7091.99780     4638.0000      818.3750     1719.8750        0.5000
    7092.25090     4635.0000      818.3750     1717.8750        0.5000
    7092.49942     4637.0000      819.3750     1718.8750        0.5000
    7092.74794     4628.0000      817.3750     1716.8750        0.5000
    7093.00108     4636.0000      819.3750     1720.8750        0.5000
    7093.24962     4632.0000      819.3750     1718.8750        0.5000
    7093.49818     4632.0000      819.3750     1718.8750        0.5000
    7093.75135     4643.0000      820.3750     1724.8750        0.5000
    7093.99992     4623.0000      818.3750     1716.8750        0.5000
    7094.24851     4633.0000      819.3750     1720.8750        0.5000
    7094.50171     4627.0000      819.3750     1719.8750        0.5000
    7094.75031     4628.0000      818.3750     1719.8750        0.5000
    7094.99893     4629.0000      819.3750     1719.8750        0.5000
    7095.25216     4637.0000      821.3750     1723.8750        0.5000
    7095.50080     4630.0000      820.3750     1722.8750        0.5000
    7095.74944     4637.0000      821.3750     1724.8750        0.5000
    7095.99810     4628.0000      820.3750     1720.8750        0.5000
    7096.25137     4635.0000      821.3750     1723.8750        0.5000
    7096.50005     4618.0000      819.3750     1718.8750        0.5000
    7096.74874     4626.0000      820.3750     1721.8750        0.5000
    7097.00204     4627.0000      820.3750     1722.8750        0.5000
    7097.25075     4629.0000      821.3750     1723.8750        0.5000
    7097.49947     4623.0000      820.3750     1721.8750        0.5000
    7097.74820     4630.0000      821.3750     1724.8750        0.5000
    7098.00154     4632.0000      821.3750     1726.8750        0.5000
    7098.25029     4619.0000      820.3750     1720.8750        0.5000
    7098.49905     4625.0000      821.3750     1722.8750        0.5000
    7098.74782     4638.0000      824.3750     1727.8750        0.5000
    7099.00121     4626.0000      822.3750     1724.8750        0.5000
    7099.25000     4621.0000      821.3750     1721.8750        0.5000
    7099.49880     4626.0000      822.3750     1725.8750        0.5000
    7099.75221     4624.0000      822.3750     1723.8750        0.5000
    7100.00103     4621.0000      822.3750     1723.8750        0.5000
    7100.24986     4627.0000      823.3750     1726.8750        0.5000
    7100.49871     4627.0000      823.3750     1724.8750        0.5000
    7100.75216     4619.0000      821.3750     1722.8750        0.5000
    7101.00103     4622.0000      822.3750     1724.8750        0.5000
    7101.24990     4620.0000      822.3750     1724.8750        0.5000
    7101.49878     4644.0000      826.3750     1733.8750        0.5000
    7101.75228     4622.0000      823.3750     1725.8750        0.5000
    7102.00118     4619.0000      822.3750     1724.8750        0.5000
    7102.25009     4624.0000      823.3750     1726.8750        0.5000
    7102.49901     4623.0000      823.3750     1724.8750        0.5000
    7102.74795     4625.0000      823.3750     1728.8750        0.5000
    7103.00150     4630.0000      826.3750     1729.8750        0.5000
    7103.25045     4618.0000      824.3750     1725.8750        0.5000
    7103.49941     4620.0000      823.3750     1725.8750        0.5000
    7103.74839     4618.0000      824.3750     1725.8750        0.5000
    7104.00198     4620.0000      824.3750     1726.8750        0.5000
    7104.25098     4628.0000      826.3750     1726.8750        0.5000
    7104.49998     4632.0000      826.3750     1729.8750        0.5000
    7104.74899     4607.0000      822.3750     1718.8750        0.5000
    7104.99802     4632.0000      827.3750     1726.8750        0.5000
    7105.25166     4626.0000      826.3750     1727.8750        0.5000
    7105.50071     4629.0000      827.3750     1727.8750        0.5000
    7105.74976     4625.0000      826.3750     1726.8750        0.5000
    7105.99883     4613.0000      824.3750     1720.8750        0.5000
    7106.24790     4621.0000      826.3750     1722.8750        0.5000
    7106.50160     4602.0000      822.3750     1715.8750        0.5000
    7106.75069     4608.0000      823.3750     1717.8750        0.5000
    7106.99980     4620.0000      826.3750     1721.8750        0.5000
    7107.24891     4609.0000      824.3750     1716.8750        0.5000
    7107.49804     4622.0000      826.3750     1719.8750        0.5000
    7107.75179     4618.0000      826.3750     1719.8750        0.5000
    7108.00093     4620.0000      826.3750     1717.8750        0.5000
    7108.25009     4616.0000      827.3750     1715.8750        0.5000
    7108.49926     4612.0000      825.3750     1712.8750        0.5000
    7108.74843     4614.0000      826.3750     1711.8750        0.5000
    7109.00223     4610.0000      825.3750     1707.8750        0.5000
    7109.25143     4608.0000      825.3750     1707.8750        0.5000
    7109.50064     4611.0000      825.3750     1704.8750        0.5000
    7109.74985     4599.0000      824.3750     1697.8750        0.5000
    7109.99908     4609.0000      826.3750     1698.8750        0.5000
    7110.24832     4620.0000      828.3750     1699.8750        0.5000
    7110.50218     4598.0000      824.3750     1683.8750        0.5000
    7110.75144     4601.0000      824.3750     1675.8750        0.5000
    7111.00071     4606.0000      825.3750     1668.8750        0.5000
    7111.24998     4606.0000      824.3750     1653.8750        0.5000
    7111.49927     4594.0000      823.3750     1634.8750        0.5000
    7111.74857     4606.0000      825.3750     1616.8750        0.5000
    7111.99788     4603.0000      825.3750     1586.8750        0.5000
    7112.25181     4603.0000      823.3750     1539.8750        0.5000
    7112.50114     4590.0000      821.3750     1482.8750        0.5000
    7112.75048     4607.0000      823.3750     1448.8750        0.5000
    7112.99983     4595.0000      821.3750     1412.8750        0.5000
    7113.24919     4601.0000      820.3750     1391.8750        0.5000
    7113.49856     4615.0000      821.3750     1373.8750        0.5000
    7113.74794     4596.0000      815.3750     1345.8750        0.5000
    7114.00194     4603.0000      814.3750     1326.8750        0.5000
    7114.25134     4595.0000      813.3750     1310.8750        0.5000
    7114.50075     4606.0000      816.3750     1298.8750        0.5000
    7114.75017     4585.0000      813.3750     1279.8750        0.5000
    7114.99960     4589.0000      813.3750     1268.8750        0.5000
    7115.24904     4601.0000      815.3750     1258.8750        0.5000
    7115.49849     4587.0000      813.3750     1245.8750        0.5000
    7115.74795     4595.0000      815.3750     1242.8750        0.5000
    7116.00204     4573.0000      813.3750     1232.8750        0.5000
    7116.25152     4598.0000      818.3750     1236.8750        0.5000
    7116.50101     4593.0000      816.3750     1233.8750        0.5000
    7116.75052     4595.0000      816.3750     1229.8750        0.5000
    7117.00003     4582.0000      814.3750     1222.8750        0.5000
    7117.24955     4590.0000      814.3750     1220.8750        0.5000
    7117.49908     4581.0000      813.3750     1212.8750        0.5000
    7117.74862     4589.0000      813.3750     1209.8750        0.5000
    7117.99817     4594.0000      813.3750     1200.8750        0.5000
    7118.24773     4572.0000      809.3750     1178.8750        0.5000
    7118.50193     4590.0000      812.3750     1167.8750        0.5000
    7118.75151     4581.0000      809.3750     1143.8750        0.5000
    7119.00110     4583.0000      809.3750     1128.8750        0.5000
    7119.25070     4585.0000      809.3750     1110.8750        0.5000
    7119.50031     4576.0000      807.3750     1088.8750        0.5000
    7119.74994     4587.0000      808.3750     1075.8750        0.5000
    7119.99957     4583.0000      807.3750     1051.8750        0.5000
    7120.24921     4584.0000      805.3750     1031.8750        0.5000
    7120.49886     4582.0000      802.3750     1006.8750        0.5000
    7120.74853     4574.0000      799.3750      978.8750        0.5000
    7120.99820     4580.0000      797.3750      959.8750        0.5000
    7121.24788     4577.0000      794.3750      935.8750        0.5000
    7121.50220     4582.0000      792.3750      917.8750        0.5000
    7121.75190     4564.0000      784.3750      892.8750        0.5000
    7122.00161     4570.0000      780.3750      872.8750        0.5000
    7122.25134     4590.0000      778.3750      857.8750        0.5000
    7122.50107     4568.0000      767.3750      832.8750        0.5000
    7122.75082     4557.0000      756.3750      805.8750        0.5000
    7123.00057     4556.0000      746.3750      786.8750        0.5000
    7123.25033     4564.0000      739.3750      770.8750        0.5000
    7123.50011     4564.0000      729.3750      750.8750        0.5000
    7123.74989     4557.0000      717.3750      730.8750        0.5000
    7123.99968     4550.0000      706.3750      710.8750        0.5000
    7124.24949     4557.0000      698.3750      696.8750        0.5000
    7124.49930     4554.0000      690.3750      683.8750        0.5000
    7124.74913     4555.0000      682.3750      671.8750        0.5000
    7124.99896     4555.0000      676.3750      659.8750        0.5000
    7125.24881     4559.0000      667.3750      647.8750        0.5000
    7125.49866     4551.0000      659.3750      632.8750        0.5000
    7125.74852     4550.0000      650.3750      622.8750        0.5000
    7125.99840     4547.0000      641.3750      608.8750        0.5000
    7126.24828     4546.0000      631.3750      594.8750        0.5000
    7126.49818     4484.0000      610.3750      575.8750        0.5000
    7126.74808     4435.0000      592.3750      548.8750        0.5000
    7126.99800     4520.0000      590.3750      542.8750        0.5000
    7127.24792     4532.0000      582.3750      532.8750        0.5000
    7127.49786     4540.0000      572.3750      520.8750        0.5000
    7127.74780     4535.0000      557.3750      502.8750        0.5000
    7127.99776     4533.0000      541.3750      482.8750        0.5000
    7128.24772     4527.0000      527.3750      467.8750        0.5000
    7128.49770     4530.0000      510.3750      447.8750        0.5000
    7128.74769     4530.0000      494.3750      427.8750        0.5000
    7129.00231     4533.0000      479.3750      408.8750        0.5000
    7129.24769     4526.0000      467.3750      394.8750        0.5000
    7129.49770     4518.0000      455.3750      380.8750        0.5000
    7129.74773     4529.0000      448.3750      371.8750        0.5000
    7129.99776     4532.0000      442.3750      361.8750        0.5000
    7130.24781     4530.0000      436.3750      352.8750        0.5000
    7130.49787     4525.0000      430.3750      345.8750        0.5000
    7130.74793     4466.0000      421.3750      337.8750        0.5000
    7130.99801     4417.0000      413.3750      324.8750        0.5000
    7131.24810     4489.0000      416.3750      323.8750        0.5000
    7131.49819     4496.0000      414.3750      321.8750        0.5000
    7131.74830     4506.0000      413.3750      320.8750        0.5000
    7131.99842     4505.0000      411.3750      318.8750        0.5000
    7132.24854     4500.0000      409.3750      318.8750        0.5000
    7132.49868     4502.0000      409.3750      318.8750        0.5000
    7132.74883     4507.0000      409.3750      321.8750        0.5000
    7132.99898     4500.0000      410.3750      323.8750        0.5000
    7133.24915     4499.0000      412.3750      329.8750        0.5000
    7133.49933     4506.0000      416.3750      335.8750        0.5000
    7133.74951     4502.0000      419.3750      341.8750        0.5000
    7133.99971     4498.0000      422.3750      346.8750        0.5000
    7134.24992     4496.0000      425.3750      352.8750        0.5000
    7134.50013     4493.0000      428.3750      358.8750        0.5000
    7134.75036     4493.0000      430.3750      363.8750        0.5000
    7135.00060     4501.0000      435.3750      369.8750        0.5000
    7135.25085     4505.0000      438.3750      374.8750        0.5000
    7135.50110     4494.0000      440.3750      379.8750        0.5000
    7135.75137     4498.0000      442.3750      384.8750        0.5000
    7136.00165     4500.0000      444.3750      388.8750        0.5000
    7136.25194     4504.0000      447.3750      393.8750        0.5000
    7136.50223     4509.0000      449.3750      395.8750        0.5000
    7136.74791     4500.0000      449.3750      396.8750        0.5000
    7136.99822     4505.0000      451.3750      399.8750        0.5000
    7137.24855     4504.0000      453.3750      401.8750        0.5000
    7137.49889     4512.0000      455.3750      404.8750        0.5000
    7137.74924     4495.0000      454.3750      403.8750        0.5000
    7137.99960     4503.0000      458.3750      407.8750        0.5000
    7138.24996     4500.0000      459.3750      408.8750        0.5000
    7138.50034     4505.0000      461.3750      409.8750        0.5000
    7138.75073     4498.0000      462.3750      410.8750        0.5000
    7139.00113     4500.0000      464.3750      411.8750        0.5000
    7139.25154     4493.0000      465.3750      412.8750        0.5000
    7139.50195     4502.0000      468.3750      411.8750        0.5000
    7139.74774     4504.0000      471.3750      412.8750        0.5000
    7139.99818     4505.0000      473.3750      413.8750        0.5000
    7140.24863     4509.0000      475.3750      415.8750        0.5000
    7140.49909     4499.0000      477.3750      413.8750        0.5000
    7140.74956     4505.0000      480.3750      415.8750        0.5000
    7141.00004     4504.0000      482.3750      415.8750        0.5000
    7141.25052     4505.0000      484.3750      417.8750        0.5000
    7141.50102     4507.0000      486.3750      418.8750        0.5000
    7141.75153     4500.0000      488.3750      418.8750        0.5000
    7143.07847     4489.0000      497.3750      424.8750        0.5000
    7144.17827     4500.0000      505.3750      433.8750        0.5000
    7145.29220     4511.0000      514.3750      440.8750        0.5000
    7146.42953     4500.0000      517.3750      445.8750        0.5000
    7147.58565     4484.0000      517.3750      442.8750        0.5000
    7148.75592     4497.0000      522.3750      438.8750        0.5000
    7149.94962     4494.0000      529.3750      437.8750        0.5000
    7151.16214     4485.0000      539.3750      438.8750        0.5000
    7152.39348     4402.0000      541.3750      439.8750        0.5000
    7153.64366     4492.0000      564.3750      452.8750        0.5000
    7154.91268     4488.0000      573.3750      457.8750        0.5000
    7156.20055     4493.0000      581.3750      465.8750        0.5000
    7157.50730     4468.0000      583.3750      466.8750        0.5000
    7158.83292     4514.0000      593.3750      480.8750        0.5000
    7160.18208     4501.0000      593.3750      481.8750        0.5000
    7161.54549     4505.0000      596.3750      484.8750        0.5000
    7162.92782     4510.0000      598.3750      487.8750        0.5000
    7164.32907     4516.0000      599.3750      490.8750        0.5000
    7165.75392     4533.0000      599.3750      493.8750        0.5000
    7167.19306     4535.0000      597.3750      493.8750        0.5000
    7168.65117     4535.0000      591.3750      491.8750        0.5000
    7170.13291     4542.0000      586.3750      488.8750        0.5000
    7171.62898     4536.0000      579.3750      484.8750        0.5000
    7173.52171     4578.0000      573.3005      484.7025        0.5020
    7175.06056     4643.0000      573.0398      488.0987        0.5090
    7176.62310     4709.0000      572.8162      494.5813        0.5150
    7178.20002     4771.0000      573.5928      503.0638        0.5210
    7179.79600     4824.0000      575.3692      513.5462        0.5270
    7181.41573     4902.0000      582.1085      525.9425        0.5340
    7183.04987     4968.0000      588.8850      534.4250        0.5400
    7184.70312     5026.0000      595.6615      541.9075        0.5460
    7186.38015     5097.0000      606.4380      549.3900        0.5520
    7188.07164     5157.0000      618.1772      554.7862        0.5590
    7189.78228     5215.0000      628.9538      556.2687        0.5650
    7191.51676     5293.0000      642.7302      561.7513        0.5710
    7193.26573     5342.0000      653.5068      561.2337        0.5770
    7195.03389     5417.0000      668.2460      564.6300        0.5840
    7196.82126     5474.0000      680.0225      571.1125        0.5900
    7198.62785     5534.0000      689.7990      584.5950        0.5960
    7200.45368     5591.0000      700.5755      603.0775        0.6020
    7202.30344     5652.0000      711.3148      623.4737        0.6090
    7204.16778     5719.0000      722.0912      646.9562        0.6150
    7206.05141     5774.0000      730.8678      670.4388        0.6210
    7207.94966     5834.0000      740.6443      692.9212        0.6270
    7209.87190     5894.0000      751.3835      703.3175        0.6340
    7211.81348     5951.0000      760.1600      701.8000        0.6400
    7213.77441     6022.0000      770.9365      687.2825        0.6460
    7215.75000     6072.0000      781.7130      661.7650        0.6520
    7217.74968     6138.0000      791.4523      639.1612        0.6590
    7219.76875     6200.0000      802.2287      626.6437        0.6650
    7221.80255     6239.0000      810.0053      622.1263        0.6710
    7223.85577     6324.0000      823.7817      636.6087        0.6770
