XDAC V1.4 Datafile V1
"Fe_lepidocrocite.200" created on 11/3/2011 at 4:47:20 PM on X-23A2
Diffraction element= Si (311).  Ring energy= 2.80 GeV
E0= 7112.00
NUM_REGIONS= 4
SRB= -200 -20 30 60 15k
SRSS= 10 0.25 0.05k 0.05k
SPP= 0.5 0.5 0.5 0.125k
Settling time= 0.00


Offsets= 0.00 37.25 86.25 0.00
Gains= 8.00 8.00 9.00 1.00
gamma-FeOOH on tape


--------------------------------------------------------------------------------
        Energy            I0            It            Ir       IntTime
    6912.00137     4140.0000      607.3750     2226.8750        0.5000
    6921.99811     4141.0000      614.3750     2257.8750        0.5000
    6931.99952     4164.0000      624.3750     2300.8750        0.5000
    6942.00100     4176.0000      632.3750     2335.8750        0.5000
    6951.99793     4167.0000      637.3750     2362.8750        0.5000
    6961.99916     4176.0000      646.3750     2401.8750        0.5000
    6972.00005     4164.0000      651.3750     2427.8750        0.5000
    6982.00050     4161.0000      657.3750     2461.8750        0.5000
    6992.00035     4177.0000      667.3750     2508.8750        0.5000
    7001.99948     4178.0000      674.3750     2542.8750        0.5000
    7011.99777     4158.0000      678.3750     2562.8750        0.5000
    7021.99962     4153.0000      684.3750     2590.8750        0.5000
    7032.00039     4157.0000      692.3750     2627.8750        0.5000
    7041.99992     4146.0000      696.3750     2649.8750        0.5000
    7051.99811     4156.0000      705.3750     2688.8750        0.5000
    7061.99940     4177.0000      715.3750     2734.8750        0.5000
    7071.99909     4188.0000      724.3750     2780.8750        0.5000
    7082.00166     4186.0000      731.3750     2811.8750        0.5000
    7091.99780     4182.0000      737.3750     2839.8750        0.5000
    7092.25090     4190.0000      739.3750     2845.8750        0.5000
    7092.49942     4192.0000      740.3750     2847.8750        0.5000
    7092.74794     4178.0000      737.3750     2838.8750        0.5000
    7093.00108     4202.0000      742.3750     2854.8750        0.5000
    7093.24962     4181.0000      738.3750     2843.8750        0.5000
    7093.49818     4195.0000      741.3750     2856.8750        0.5000
    7093.75135     4188.0000      739.3750     2849.8750        0.5000
    7093.99992     4198.0000      742.3750     2858.8750        0.5000
    7094.24851     4192.0000      741.3750     2854.8750        0.5000
    7094.50171     4192.0000      741.3750     2854.8750        0.5000
    7094.75031     4182.0000      739.3750     2848.8750        0.5000
    7094.99893     4177.0000      738.3750     2847.8750        0.5000
    7095.25216     4176.0000      738.3750     2844.8750        0.5000
    7095.50080     4190.0000      741.3750     2854.8750        0.5000
    7095.74944     4190.0000      742.3750     2856.8750        0.5000
    7095.99810     4197.0000      743.3750     2859.8750        0.5000
    7096.25137     4165.0000      738.3750     2842.8750        0.5000
    7096.50005     4205.0000      745.3750     2868.8750        0.5000
    7096.74874     4190.0000      742.3750     2860.8750        0.5000
    7097.00204     4185.0000      741.3750     2854.8750        0.5000
    7097.25075     4192.0000      743.3750     2859.8750        0.5000
    7097.49947     4186.0000      742.3750     2856.8750        0.5000
    7097.74820     4200.0000      745.3750     2867.8750        0.5000
    7098.00154     4189.0000      742.3750     2860.8750        0.5000
    7098.25029     4188.0000      743.3750     2860.8750        0.5000
    7098.49905     4190.0000      743.3750     2862.8750        0.5000
    7098.74782     4189.0000      743.3750     2860.8750        0.5000
    7099.00121     4180.0000      742.3750     2856.8750        0.5000
    7099.25000     4178.0000      742.3750     2856.8750        0.5000
    7099.49880     4185.0000      743.3750     2859.8750        0.5000
    7099.75221     4187.0000      743.3750     2862.8750        0.5000
    7100.00103     4187.0000      744.3750     2861.8750        0.5000
    7100.24986     4197.0000      746.3750     2870.8750        0.5000
    7100.49871     4187.0000      745.3750     2864.8750        0.5000
    7100.75216     4198.0000      747.3750     2871.8750        0.5000
    7101.00103     4172.0000      742.3750     2854.8750        0.5000
    7101.24990     4195.0000      747.3750     2872.8750        0.5000
    7101.49878     4186.0000      745.3750     2865.8750        0.5000
    7101.75228     4206.0000      748.3750     2877.8750        0.5000
    7102.00118     4189.0000      745.3750     2869.8750        0.5000
    7102.25009     4180.0000      744.3750     2860.8750        0.5000
    7102.49901     4195.0000      747.3750     2872.8750        0.5000
    7102.74795     4178.0000      744.3750     2860.8750        0.5000
    7103.00150     4185.0000      745.3750     2865.8750        0.5000
    7103.25045     4187.0000      746.3750     2868.8750        0.5000
    7103.49941     4179.0000      745.3750     2860.8750        0.5000
    7103.74839     4186.0000      746.3750     2866.8750        0.5000
    7104.00198     4185.0000      745.3750     2867.8750        0.5000
    7104.25098     4181.0000      745.3750     2860.8750        0.5000
    7104.49998     4176.0000      745.3750     2859.8750        0.5000
    7104.74899     4196.0000      749.3750     2872.8750        0.5000
    7104.99802     4182.0000      745.3750     2862.8750        0.5000
    7105.25166     4194.0000      748.3750     2872.8750        0.5000
    7105.50071     4187.0000      747.3750     2864.8750        0.5000
    7105.74976     4186.0000      747.3750     2864.8750        0.5000
    7105.99883     4169.0000      744.3750     2851.8750        0.5000
    7106.24790     4179.0000      746.3750     2859.8750        0.5000
    7106.50160     4182.0000      747.3750     2861.8750        0.5000
    7106.75069     4176.0000      746.3750     2855.8750        0.5000
    7106.99980     4168.0000      745.3750     2849.8750        0.5000
    7107.24891     4182.0000      747.3750     2858.8750        0.5000
    7107.49804     4181.0000      747.3750     2857.8750        0.5000
    7107.75179     4168.0000      744.3750     2844.8750        0.5000
    7108.00093     4190.0000      749.3750     2858.8750        0.5000
    7108.25009     4183.0000      748.3750     2852.8750        0.5000
    7108.49926     4178.0000      747.3750     2846.8750        0.5000
    7108.74843     4195.0000      750.3750     2855.8750        0.5000
    7109.00223     4175.0000      747.3750     2840.8750        0.5000
    7109.25143     4177.0000      747.3750     2838.8750        0.5000
    7109.50064     4174.0000      747.3750     2831.8750        0.5000
    7109.74985     4170.0000      746.3750     2825.8750        0.5000
    7109.99908     4171.0000      746.3750     2821.8750        0.5000
    7110.24832     4170.0000      746.3750     2813.8750        0.5000
    7110.50218     4179.0000      748.3750     2810.8750        0.5000
    7110.75144     4178.0000      748.3750     2798.8750        0.5000
    7111.00071     4158.0000      744.3750     2770.8750        0.5000
    7111.24998     4158.0000      745.3750     2748.8750        0.5000
    7111.49927     4156.0000      744.3750     2717.8750        0.5000
    7111.74857     4183.0000      748.3750     2694.8750        0.5000
    7111.99788     4154.0000      743.3750     2614.8750        0.5000
    7112.25181     4147.0000      742.3750     2536.8750        0.5000
    7112.50114     4169.0000      746.3750     2475.8750        0.5000
    7112.75048     4155.0000      742.3750     2399.8750        0.5000
    7112.99983     4175.0000      745.3750     2350.8750        0.5000
    7113.24919     4167.0000      742.3750     2303.8750        0.5000
    7113.49856     4147.0000      736.3750     2252.8750        0.5000
    7113.74794     4148.0000      734.3750     2217.8750        0.5000
    7114.00194     4153.0000      733.3750     2192.8750        0.5000
    7114.25134     4163.0000      736.3750     2179.8750        0.5000
    7114.50075     4144.0000      734.3750     2148.8750        0.5000
    7114.75017     4157.0000      737.3750     2132.8750        0.5000
    7114.99960     4139.0000      733.3750     2100.8750        0.5000
    7115.24904     4159.0000      736.3750     2088.8750        0.5000
    7115.49849     4151.0000      734.3750     2073.8750        0.5000
    7115.74795     4152.0000      736.3750     2060.8750        0.5000
    7116.00204     4157.0000      737.3750     2058.8750        0.5000
    7116.25152     4147.0000      737.3750     2049.8750        0.5000
    7116.50101     4150.0000      737.3750     2042.8750        0.5000
    7116.75052     4146.0000      736.3750     2036.8750        0.5000
    7117.00003     4159.0000      738.3750     2038.8750        0.5000
    7117.24955     4162.0000      738.3750     2033.8750        0.5000
    7117.49908     4138.0000      734.3750     2013.8750        0.5000
    7117.74862     4156.0000      736.3750     2008.8750        0.5000
    7117.99817     4138.0000      732.3750     1981.8750        0.5000
    7118.24773     4148.0000      734.3750     1966.8750        0.5000
    7118.50193     4139.0000      732.3750     1932.8750        0.5000
    7118.75151     4150.0000      733.3750     1906.8750        0.5000
    7119.00110     4148.0000      732.3750     1878.8750        0.5000
    7119.25070     4140.0000      730.3750     1837.8750        0.5000
    7119.50031     4141.0000      730.3750     1798.8750        0.5000
    7119.74994     4144.0000      728.3750     1760.8750        0.5000
    7119.99957     4149.0000      728.3750     1731.8750        0.5000
    7120.24921     4146.0000      727.3750     1698.8750        0.5000
    7120.49886     4142.0000      724.3750     1665.8750        0.5000
    7120.74853     4139.0000      722.3750     1631.8750        0.5000
    7120.99820     4139.0000      720.3750     1591.8750        0.5000
    7121.24788     4142.0000      719.3750     1565.8750        0.5000
    7121.50220     4141.0000      715.3750     1530.8750        0.5000
    7121.75190     4138.0000      711.3750     1493.8750        0.5000
    7122.00161     4133.0000      704.3750     1451.8750        0.5000
    7122.25134     4132.0000      699.3750     1417.8750        0.5000
    7122.50107     4121.0000      692.3750     1381.8750        0.5000
    7122.75082     4135.0000      686.3750     1348.8750        0.5000
    7123.00057     4126.0000      678.3750     1314.8750        0.5000
    7123.25033     4117.0000      666.3750     1274.8750        0.5000
    7123.50011     4134.0000      660.3750     1249.8750        0.5000
    7123.74989     4126.0000      649.3750     1219.8750        0.5000
    7123.99968     4135.0000      641.3750     1191.8750        0.5000
    7124.24949     4124.0000      630.3750     1158.8750        0.5000
    7124.49930     4123.0000      623.3750     1134.8750        0.5000
    7124.74913     4122.0000      616.3750     1112.8750        0.5000
    7124.99896     4124.0000      608.3750     1090.8750        0.5000
    7125.24881     4123.0000      600.3750     1067.8750        0.5000
    7125.49866     4126.0000      591.3750     1044.8750        0.5000
    7125.74852     4122.0000      583.3750     1023.8750        0.5000
    7125.99840     4122.0000      577.3750     1005.8750        0.5000
    7126.24828     4107.0000      564.3750      975.8750        0.5000
    7126.49818     4047.0000      547.3750      941.8750        0.5000
    7126.74808     4057.0000      535.3750      908.8750        0.5000
    7126.99800     4095.0000      531.3750      897.8750        0.5000
    7127.24792     4102.0000      521.3750      877.8750        0.5000
    7127.49786     4098.0000      511.3750      853.8750        0.5000
    7127.74780     4106.0000      501.3750      831.8750        0.5000
    7127.99776     4101.0000      487.3750      800.8750        0.5000
    7128.24772     4102.0000      473.3750      770.8750        0.5000
    7128.49770     4103.0000      459.3750      738.8750        0.5000
    7128.74769     4090.0000      441.3750      704.8750        0.5000
    7129.00231     4104.0000      431.3750      679.8750        0.5000
    7129.24769     4107.0000      422.3750      656.8750        0.5000
    7129.49770     4094.0000      411.3750      632.8750        0.5000
    7129.74773     4110.0000      404.3750      615.8750        0.5000
    7129.99776     4111.0000      398.3750      597.8750        0.5000
    7130.24781     4092.0000      391.3750      580.8750        0.5000
    7130.49787     4089.0000      387.3750      569.8750        0.5000
    7130.74793     4038.0000      377.3750      552.8750        0.5000
    7130.99801     4015.0000      372.3750      536.8750        0.5000
    7131.24810     4061.0000      373.3750      536.8750        0.5000
    7131.49819     4078.0000      373.3750      531.8750        0.5000
    7131.74830     4053.0000      368.3750      525.8750        0.5000
    7131.99842     4086.0000      370.3750      526.8750        0.5000
    7132.24854     4066.0000      367.3750      523.8750        0.5000
    7132.49868     4075.0000      367.3750      527.8750        0.5000
    7132.74883     4076.0000      367.3750      530.8750        0.5000
    7132.99898     4076.0000      369.3750      535.8750        0.5000
    7133.24915     4070.0000      370.3750      540.8750        0.5000
    7133.49933     4075.0000      371.3750      549.8750        0.5000
    7133.74951     4075.0000      374.3750      559.8750        0.5000
    7133.99971     4071.0000      377.3750      568.8750        0.5000
    7134.24992     4073.0000      380.3750      578.8750        0.5000
    7134.50013     4079.0000      384.3750      589.8750        0.5000
    7134.75036     4089.0000      388.3750      601.8750        0.5000
    7135.00060     4080.0000      389.3750      608.8750        0.5000
    7135.25085     4076.0000      392.3750      618.8750        0.5000
    7135.50110     4086.0000      396.3750      629.8750        0.5000
    7135.75137     4078.0000      398.3750      637.8750        0.5000
    7136.00165     4070.0000      399.3750      640.8750        0.5000
    7136.25194     4087.0000      402.3750      648.8750        0.5000
    7136.50223     4078.0000      402.3750      653.8750        0.5000
    7136.74791     4068.0000      403.3750      655.8750        0.5000
    7136.99822     4072.0000      404.3750      659.8750        0.5000
    7137.24855     4060.0000      405.3750      661.8750        0.5000
    7137.49889     4078.0000      408.3750      667.8750        0.5000
    7137.74924     4066.0000      408.3750      669.8750        0.5000
    7137.99960     4072.0000      410.3750      671.8750        0.5000
    7138.24996     4076.0000      412.3750      675.8750        0.5000
    7138.50034     4077.0000      414.3750      678.8750        0.5000
    7138.75073     4093.0000      417.3750      681.8750        0.5000
    7139.00113     4074.0000      417.3750      680.8750        0.5000
    7139.25154     4086.0000      420.3750      684.8750        0.5000
    7139.50195     4076.0000      421.3750      684.8750        0.5000
    7139.74774     4076.0000      423.3750      683.8750        0.5000
    7139.99818     4079.0000      424.3750      684.8750        0.5000
    7140.24863     4074.0000      426.3750      685.8750        0.5000
    7140.49909     4093.0000      430.3750      689.8750        0.5000
    7140.74956     4069.0000      431.3750      687.8750        0.5000
    7141.00004     4086.0000      434.3750      691.8750        0.5000
    7141.25052     4074.0000      435.3750      690.8750        0.5000
    7141.50102     4072.0000      437.3750      691.8750        0.5000
    7141.75153     4085.0000      440.3750      695.8750        0.5000
    7143.07847     4093.0000      450.3750      708.8750        0.5000
    7144.17827     4072.0000      455.3750      718.8750        0.5000
    7145.29220     4084.0000      462.3750      734.8750        0.5000
    7146.42953     4076.0000      466.3750      738.8750        0.5000
    7147.58565     4065.0000      467.3750      734.8750        0.5000
    7148.75592     4073.0000      470.3750      729.8750        0.5000
    7149.94962     4058.0000      476.3750      722.8750        0.5000
    7151.16214     4074.0000      487.3750      730.8750        0.5000
    7152.39348     4009.0000      490.3750      731.8750        0.5000
    7153.64366     4069.0000      509.3750      752.8750        0.5000
    7154.91268     4087.0000      519.3750      765.8750        0.5000
    7156.20055     4093.0000      527.3750      777.8750        0.5000
    7157.50730     4049.0000      525.3750      778.8750        0.5000
    7158.83292     4092.0000      534.3750      798.8750        0.5000
    7160.18208     4091.0000      536.3750      803.8750        0.5000
    7161.54549     4095.0000      538.3750      807.8750        0.5000
    7162.92782     4108.0000      541.3750      813.8750        0.5000
    7164.32907     4111.0000      542.3750      818.8750        0.5000
    7165.75392     4122.0000      542.3750      822.8750        0.5000
    7167.19306     4110.0000      538.3750      818.8750        0.5000
    7168.65117     4125.0000      534.3750      818.8750        0.5000
    7170.13291     4133.0000      531.3750      813.8750        0.5000
    7171.62898     4130.0000      523.3750      806.8750        0.5000
    7173.52171     4165.0000      518.3005      805.7025        0.5020
    7175.06056     4227.0000      518.0398      813.0987        0.5090
    7176.62310     4276.0000      515.8162      822.5812        0.5150
    7178.20002     4341.0000      517.5928      836.0638        0.5210
    7179.79600     4391.0000      520.3692      853.5462        0.5270
    7181.41573     4463.0000      527.1085      874.9425        0.5340
    7183.04987     4515.0000      531.8850      885.4250        0.5400
    7184.70312     4578.0000      539.6615      899.9075        0.5460
    7186.38015     4633.0000      548.4380      910.3900        0.5520
    7188.07164     4691.0000      558.1772      919.7862        0.5590
    7189.78228     4752.0000      568.9538      925.2687        0.5650
    7191.51676     4814.0000      581.7302      929.7513        0.5710
    7193.26573     4852.0000      589.5068      929.2337        0.5770
    7195.03389     4926.0000      604.2460      936.6300        0.5840
    7196.82126     4979.0000      614.0225      947.1125        0.5900
    7198.62785     5032.0000      624.7990      968.5950        0.5960
    7200.45368     5086.0000      634.5755     1001.0775        0.6020
    7202.30344     5162.0000      646.3148     1040.4738        0.6090
    7204.16778     5208.0000      654.0912     1074.9562        0.6150
    7206.05141     5250.0000      660.8678     1112.4388        0.6210
    7207.94966     5297.0000      669.6443     1142.9213        0.6270
    7209.87190     5365.0000      679.3835     1165.3175        0.6340
    7211.81348     5405.0000      687.1600     1160.8000        0.6400
    7213.77441     5447.0000      693.9365     1133.2825        0.6460
    7215.75000     5507.0000      704.7130     1093.7650        0.6520
    7217.74968     5573.0000      714.4523     1062.1613        0.6590
    7219.76875     5623.0000      724.2287     1035.6437        0.6650
    7221.80255     5660.0000      732.0053     1028.1263        0.6710
    7223.85577     5707.0000      738.7817     1044.6088        0.6770
